File: Data/Raman.csv
,File,Peak 1,Peak 2,Intensity 1,Intensity 2,Peak Difference,Intensity Difference
0,Jacky/Shivani/Shivani Sample 1/MoS2_3_loc4.txt,380.194,404.366,289.617,243.321,24.1718,46.2965
1,Jacky/Shivani/Shivani Sample 1/MoS2_3_loc5.txt,380.682,405.049,256.427,192.717,24.3671,63.7094
2,Jacky/Shivani/Shivani Sample 1/MoS2_2_loc2.txt,379.981,404.937,368.317,316.117,24.9564,52.2001
3,Jacky/Shivani/Shivani Sample 1/MoS2_3_loc2.txt,381.352,402.826,141.463,107.465,21.474,33.9973
4,Jacky/Shivani/Shivani Sample 1/MoS2_3_loc3.txt,381.406,402.889,141.403,140.972,21.4831,0.431128
5,Jacky/Shivani/Shivani Sample 1/MoS2_2_loc3.txt,,,,,,
6,Jacky/Shivani/Shivani Sample 1/MoS2_2_loc1.txt,379.94,405.175,402.142,335.436,25.2349,66.7057
7,Jacky/Shivani/Shivani Sample 1/MoS2_4_loc2.txt,381.059,402.778,70.5937,49.4982,21.719,21.0955
8,Jacky/Shivani/Shivani Sample 1/MoS2_4_loc3.txt,379.894,404.027,275.635,214.624,24.1332,61.0108
9,Jacky/Shivani/Shivani Sample 1/MoS2_4_loc1.txt,382.684,403.688,33.1911,36.6144,21.0034,3.42323
10,Jacky/Shivani/Shivani Sample 1/MoS2_4_loc4.txt,379.075,404.582,308.509,250.378,25.5075,58.1315
11,Jacky/Shivani/Shivani Sample 1/MoS2_4_loc5.txt,381.481,403.134,82.7604,92.2783,21.6526,9.51789
12,Jacky/Shivani/Shivani Sample 1/MoS2_1_loc1.txt,379.108,1114.05,4.86892,333.541,734.939,328.672
13,Jacky/Shivani/Shivani Sample 1/MoS2_1_loc2.txt,380.325,404.784,210.689,153.959,24.4584,56.7305
14,Jacky/Shivani/Shivani Sample 1/MoS2_1_loc3.txt,381.333,403.093,144.07,110.966,21.7596,33.1044
15,Jacky/Shivani/Shivani Sample 1/MoS2_1_loc6.txt,379.493,405.544,362.008,289.532,26.0515,72.4767
16,Jacky/Shivani/Shivani Sample 1/MoS2_1_loc4.txt,380.055,404.682,350.63,271.033,24.6269,79.5971
17,Jacky/Shivani/Shivani Sample 1/MoS2_1_loc5.txt,381.01,404.342,216.839,189.542,23.332,27.297
18,Jacky/Shivani/Shivani Sample 2/MoS2_1_loc1.txt,378.242,404.644,457.04,330.316,26.4025,126.725
19,Jacky/Shivani/Shivani Sample 2/MoS2_1_loc2.txt,380.755,402.723,143.871,102.711,21.9675,41.1604
20,Jacky/Shivani/Shivani Sample 2/MoS2_1_loc3.txt,380.597,407.443,74.7128,48.8201,26.8458,25.8926
21,Jacky/Shivani/Shivani Sample 3/MoS2_1_loc8.txt,377.97,402.642,189.893,180.375,24.672,9.51827
22,Jacky/Shivani/Shivani Sample 3/MoS2_1_loc1.txt,379.828,401.06,153.151,160.721,21.2319,7.57013
23,Jacky/Shivani/Shivani Sample 3/MoS2_1_loc2.txt,378.635,401.954,181.794,166.889,23.319,14.905
24,Jacky/Shivani/Shivani Sample 3/MoS2_1_loc3.txt,378.269,402.22,255.513,228.899,23.9516,26.6138
25,Jacky/Shivani/Shivani Sample 3/MoS2_1_loc7.txt,377.529,402.731,309.8,314.77,25.2014,4.96982
26,Jacky/Shivani/Shivani Sample 3/MoS2_1_loc6.txt,378.192,404.856,175.699,90.9792,26.6638,84.7197
27,Jacky/Shivani/Shivani Sample 3/MoS2_1_loc4.txt,379.82,400.631,139.32,132.522,20.8118,6.79784
28,Jacky/Shivani/Shivani Sample 3/MoS2_1_loc5.txt,377.817,403.118,305.105,290.31,25.3006,14.7952
29,Jacky/Shivani/Shivani Sample 4/MoS2_1_loc1.txt,379.231,403.263,127.155,108.014,24.0324,19.1402
30,Jacky/Shivani/Shivani Sample 4/MoS2_1_loc2.txt,379.84,401.637,93.8064,62.6083,21.797,31.198
31,Jacky/Shivani/Shivani Sample 4/MoS2_1_loc3.txt,379.496,400.994,111.878,125.871,21.4981,13.9929
32,Jacky/Shivani/Shivani Sample 11/FeMoS2_2_loc2.txt,401.637,517.079,71.9375,31.6318,115.442,40.3057
33,Jacky/Shivani/Shivani Sample 11/FeMoS2_2_loc1.txt,399.783,517.232,97.5602,24.8052,117.449,72.755
34,Jacky/Shivani/Shivani Sample 11/FeMoS2_1_loc1.txt,403.282,517.401,108.654,91.4014,114.12,17.2525
35,Jacky/Shivani/Shivani Sample 11/FeMoS2_1_loc2.txt,402.324,517.704,71.381,48.6477,115.379,22.7333
36,Jacky/Shivani/Shivani Sample 12/FeMoS2_1_loc1.txt,401.061,517.182,78.8087,45.0253,116.12,33.7834
37,Jacky/Shivani/Shivani Sample 12/FeMoS2_1_loc2.txt,401.242,517.59,76.2417,54.1917,116.348,22.05
38,Jacky/Shivani/Shivani Sample 13/FeMoS2_1_loc1.txt,400.236,519.798,265.553,64.1773,119.562,201.376
39,Jacky/Shivani/Shivani Sample 13/FeMoS2_1_loc2.txt,401.95,520.51,322.014,122.312,118.56,199.703
40,Jacky/Shivani/Shivani Sample 14/FeMoS2_1_loc1.txt,378.2,404.205,599.914,545.725,26.005,54.1888
41,Jacky/Shivani/Shivani Sample 14/FeMoS2_1_loc2.txt,404.606,520.744,306.289,277.941,116.138,28.3481
42,Jacky/Shivani/Shivani Sample 14/FeMoS2_1_loc3.txt,378.41,405.151,362.473,328.893,26.7417,33.58