File: Data/Whole_Raman.csv
,File,Peak 1,Peak 2,Intensity 1,Intensity 2,Peak Difference,Intensity Difference
0,Jacky/Shivani/Shivani Sample 1/MoS2_3_loc4.txt,380.193,404.365,289.61,243.259,24.1721,46.3511
1,Jacky/Shivani/Shivani Sample 1/MoS2_3_loc5.txt,380.682,405.049,256.422,192.661,24.3675,63.7613
2,Jacky/Shivani/Shivani Sample 1/MoS2_2_loc2.txt,379.98,404.937,368.277,316.039,24.9564,52.2389
3,Jacky/Shivani/Shivani Sample 1/MoS2_3_loc2.txt,381.351,402.826,141.462,107.444,21.4745,34.0184
4,Jacky/Shivani/Shivani Sample 1/MoS2_3_loc3.txt,381.406,402.89,141.368,140.975,21.4836,0.392857
5,Jacky/Shivani/Shivani Sample 1/MoS2_2_loc3.txt,,,,,,
6,Jacky/Shivani/Shivani Sample 1/MoS2_2_loc1.txt,379.939,405.174,402.091,335.351,25.2348,66.7405
7,Jacky/Shivani/Shivani Sample 1/MoS2_4_loc2.txt,381.058,402.778,70.5964,49.485,21.7196,21.1114
8,Jacky/Shivani/Shivani Sample 1/MoS2_4_loc3.txt,379.893,404.027,275.625,214.582,24.1335,61.0429
9,Jacky/Shivani/Shivani Sample 1/MoS2_4_loc1.txt,382.684,403.688,33.1851,36.6184,21.0042,3.4333
10,Jacky/Shivani/Shivani Sample 1/MoS2_4_loc4.txt,379.074,404.582,308.484,250.318,25.5075,58.1654
11,Jacky/Shivani/Shivani Sample 1/MoS2_4_loc5.txt,381.481,403.134,82.7472,92.2815,21.6529,9.53431
12,Jacky/Shivani/Shivani Sample 1/MoS2_1_loc1.txt,379.108,1114.53,4.87437,333.465,735.425,328.59
13,Jacky/Shivani/Shivani Sample 1/MoS2_1_loc2.txt,380.325,404.784,210.679,153.923,24.4587,56.7567
14,Jacky/Shivani/Shivani Sample 1/MoS2_1_loc3.txt,381.333,403.093,144.067,110.943,21.7602,33.1242
15,Jacky/Shivani/Shivani Sample 1/MoS2_1_loc6.txt,379.492,405.544,361.961,289.455,26.0513,72.506
16,Jacky/Shivani/Shivani Sample 1/MoS2_1_loc4.txt,380.055,404.682,350.586,270.953,24.6269,79.6329
17,Jacky/Shivani/Shivani Sample 1/MoS2_1_loc5.txt,381.01,404.342,216.842,189.501,23.3323,27.3412
18,Jacky/Shivani/Shivani Sample 2/MoS2_1_loc1.txt,378.241,404.644,456.908,330.257,26.4022,126.651
19,Jacky/Shivani/Shivani Sample 2/MoS2_1_loc2.txt,380.755,402.723,143.873,102.695,21.9681,41.1781
20,Jacky/Shivani/Shivani Sample 2/MoS2_1_loc3.txt,380.596,407.443,74.7059,48.8028,26.8463,25.9031
21,Jacky/Shivani/Shivani Sample 3/MoS2_1_loc8.txt,377.97,402.642,189.896,180.359,24.6722,9.53649
22,Jacky/Shivani/Shivani Sample 3/MoS2_1_loc1.txt,379.827,401.06,153.132,160.724,21.2322,7.59217
23,Jacky/Shivani/Shivani Sample 3/MoS2_1_loc2.txt,378.635,401.955,181.783,166.891,23.3192,14.8916
24,Jacky/Shivani/Shivani Sample 3/MoS2_1_loc3.txt,378.269,402.22,255.515,228.88,23.9519,26.6347
25,Jacky/Shivani/Shivani Sample 3/MoS2_1_loc7.txt,377.529,402.73,309.752,314.76,25.2018,5.00801
26,Jacky/Shivani/Shivani Sample 3/MoS2_1_loc6.txt,378.19,404.856,175.659,90.9315,26.6653,84.7277
27,Jacky/Shivani/Shivani Sample 3/MoS2_1_loc4.txt,379.819,400.632,139.297,132.526,20.8122,6.77107
28,Jacky/Shivani/Shivani Sample 3/MoS2_1_loc5.txt,377.817,403.118,305.061,290.311,25.3011,14.7509
29,Jacky/Shivani/Shivani Sample 4/MoS2_1_loc1.txt,379.23,403.263,127.127,108.019,24.0329,19.1085
30,Jacky/Shivani/Shivani Sample 4/MoS2_1_loc2.txt,379.84,401.637,93.809,62.5997,21.7975,31.2093
31,Jacky/Shivani/Shivani Sample 4/MoS2_1_loc3.txt,379.495,400.994,111.847,125.877,21.4988,14.0301
32,Jacky/Shivani/Shivani Sample 11/FeMoS2_2_loc2.txt,401.619,517.079,71.931,31.107,115.46,40.824
33,Jacky/Shivani/Shivani Sample 11/FeMoS2_2_loc1.txt,399.941,517.232,97.5434,25.6928,117.291,71.8506
34,Jacky/Shivani/Shivani Sample 11/FeMoS2_1_loc1.txt,403.282,517.401,108.653,91.3983,114.12,17.2548
35,Jacky/Shivani/Shivani Sample 11/FeMoS2_1_loc2.txt,402.324,517.704,71.3734,48.6435,115.379,22.7299
36,Jacky/Shivani/Shivani Sample 12/FeMoS2_1_loc1.txt,401.061,517.181,78.7983,45.017,116.12,33.7813
37,Jacky/Shivani/Shivani Sample 12/FeMoS2_1_loc2.txt,401.242,517.59,76.2212,54.1736,116.348,22.0477
38,Jacky/Shivani/Shivani Sample 13/FeMoS2_1_loc1.txt,400.238,519.8,265.484,64.1917,119.562,201.292
39,Jacky/Shivani/Shivani Sample 13/FeMoS2_1_loc2.txt,401.95,520.513,321.909,122.302,118.563,199.607
40,Jacky/Shivani/Shivani Sample 14/FeMoS2_1_loc1.txt,378.2,404.202,599.695,545.53,26.0019,54.1653
41,Jacky/Shivani/Shivani Sample 14/FeMoS2_1_loc2.txt,404.606,520.748,306.158,277.947,116.142,28.2115
42,Jacky/Shivani/Shivani Sample 14/FeMoS2_1_loc3.txt,378.41,405.139,354.626,328.324,26.7292,26.302
43,Jacky/Raman/MoS2_2_loc4_r.txt,385.425,411.38,138.983,142.145,25.9555,3.16262
44,Jacky/Raman/MoS2_2_loc6_r.txt,384.982,410.715,184.264,143.179,25.7333,41.0851
45,Jacky/Raman/MoS2_2_loc2.txt,385.457,409.815,130.018,123.856,24.3576,6.16184
46,Jacky/Raman/MoS2_2_loc5_r.txt,384.11,410.103,99.9317,81.313,25.9927,18.6187
47,Jacky/Raman/MoS2_2_loc1_r.txt,387.532,408.661,53.6457,50.805,21.1295,2.84067
48,Jacky/Raman/MoS2_2_loc3_r.txt,385.863,410.317,114.629,107.66,24.4543,6.96976
49,Jacky/Raman/MoS2_3_loc2_r.txt,385.593,409.079,115.59,91.488,23.4857,24.1022
50,Jacky/Raman/MoS2_1_loc1_r.txt,386.383,407.791,90.6357,74.8668,21.4085,15.7689
51,Jacky/Raman/MoS2_1_loc3_r.txt,404.746,410.907,9.8249,9.7571,6.1613,0.0678028
52,Jacky/Raman/MoS2_3_loc4_r.txt,382.86,407.529,115.892,123.209,24.6696,7.3169
53,Jacky/Raman/MoS2_4_loc1_r.txt,384.12,406.356,66.3522,48.6481,22.2358,17.704
54,Jacky/Raman/MoS2_1_loc2_r.txt,387.347,408.388,51.954,46.5163,21.0404,5.43773
55,Jacky/Raman/MoS2_3_loc1_r.txt,384.361,408.311,95.2748,86.3722,23.9503,8.90254
56,Jacky/Raman/MoS2_3_loc3_r.txt,384.027,410.135,165.318,139.678,26.1077,25.6403
57,Jacky/Raman/MoS2_1_loc4_r.txt,387.564,409.761,67.035,41.9805,22.1974,25.0546
58,Jacky/Raman/MoS2_4_loc2_r.txt,384.513,407.833,104.751,94.9017,23.3205,9.84908